 Be Density=1.848 Thickness=54.864 microns
 Wavelength (nm), Transmission
   0.30000      0.92432    
   0.30020      0.92416    
   0.30040      0.92401    
   0.30060      0.92386    
   0.30080      0.92370    
   0.30100      0.92355    
   0.30120      0.92339    
   0.30140      0.92324    
   0.30160      0.92308    
   0.30180      0.92293    
   0.30200      0.92277    
   0.30220      0.92262    
   0.30240      0.92246    
   0.30260      0.92231    
   0.30280      0.92216    
   0.30300      0.92200    
   0.30320      0.92185    
   0.30340      0.92169    
   0.30360      0.92154    
   0.30380      0.92138    
   0.30400      0.92123    
   0.30420      0.92107    
   0.30440      0.92091    
   0.30460      0.92076    
   0.30480      0.92060    
   0.30500      0.92045    
   0.30520      0.92029    
   0.30540      0.92013    
   0.30560      0.91998    
   0.30580      0.91982    
   0.30600      0.91966    
   0.30620      0.91950    
   0.30640      0.91935    
   0.30660      0.91919    
   0.30680      0.91903    
   0.30700      0.91887    
   0.30720      0.91871    
   0.30740      0.91855    
   0.30760      0.91839    
   0.30780      0.91824    
   0.30800      0.91808    
   0.30820      0.91792    
   0.30840      0.91776    
   0.30860      0.91760    
   0.30880      0.91744    
   0.30900      0.91728    
   0.30920      0.91712    
   0.30940      0.91696    
   0.30960      0.91679    
   0.30980      0.91663    
   0.31000      0.91647    
   0.31020      0.91631    
   0.31040      0.91615    
   0.31060      0.91599    
   0.31080      0.91582    
   0.31100      0.91566    
   0.31120      0.91550    
   0.31140      0.91534    
   0.31160      0.91517    
   0.31180      0.91501    
   0.31200      0.91485    
   0.31220      0.91468    
   0.31240      0.91452    
   0.31260      0.91436    
   0.31280      0.91419    
   0.31300      0.91403    
   0.31320      0.91386    
   0.31340      0.91370    
   0.31360      0.91353    
   0.31380      0.91337    
   0.31400      0.91320    
   0.31420      0.91304    
   0.31440      0.91287    
   0.31460      0.91271    
   0.31480      0.91254    
   0.31500      0.91238    
   0.31520      0.91221    
   0.31540      0.91204    
   0.31560      0.91188    
   0.31580      0.91171    
   0.31600      0.91154    
   0.31620      0.91137    
   0.31640      0.91121    
   0.31660      0.91104    
   0.31680      0.91087    
   0.31700      0.91070    
   0.31720      0.91053    
   0.31740      0.91037    
   0.31760      0.91020    
   0.31780      0.91003    
   0.31800      0.90986    
   0.31820      0.90969    
   0.31840      0.90952    
   0.31860      0.90935    
   0.31880      0.90918    
   0.31900      0.90901    
   0.31920      0.90884    
   0.31940      0.90867    
   0.31960      0.90850    
   0.31980      0.90833    
   0.32000      0.90815    
   0.32020      0.90798    
   0.32040      0.90781    
   0.32060      0.90764    
   0.32080      0.90747    
   0.32100      0.90730    
   0.32120      0.90712    
   0.32140      0.90695    
   0.32160      0.90678    
   0.32180      0.90660    
   0.32200      0.90643    
   0.32220      0.90626    
   0.32240      0.90608    
   0.32260      0.90591    
   0.32280      0.90574    
   0.32300      0.90556    
   0.32320      0.90539    
   0.32340      0.90521    
   0.32360      0.90504    
   0.32380      0.90486    
   0.32400      0.90469    
   0.32420      0.90451    
   0.32440      0.90434    
   0.32460      0.90416    
   0.32480      0.90398    
   0.32500      0.90381    
   0.32520      0.90363    
   0.32540      0.90346    
   0.32560      0.90328    
   0.32580      0.90310    
   0.32600      0.90292    
   0.32620      0.90275    
   0.32640      0.90257    
   0.32660      0.90239    
   0.32680      0.90221    
   0.32700      0.90203    
   0.32720      0.90186    
   0.32740      0.90168    
   0.32760      0.90150    
   0.32780      0.90132    
   0.32800      0.90114    
   0.32820      0.90096    
   0.32840      0.90078    
   0.32860      0.90060    
   0.32880      0.90042    
   0.32900      0.90024    
   0.32920      0.90006    
   0.32940      0.89988    
   0.32960      0.89970    
   0.32980      0.89952    
   0.33000      0.89934    
   0.33020      0.89916    
   0.33040      0.89897    
   0.33060      0.89879    
   0.33080      0.89861    
   0.33100      0.89843    
   0.33120      0.89824    
   0.33140      0.89806    
   0.33160      0.89788    
   0.33180      0.89770    
   0.33200      0.89751    
   0.33220      0.89733    
   0.33240      0.89715    
   0.33260      0.89696    
   0.33280      0.89678    
   0.33300      0.89659    
   0.33320      0.89641    
   0.33340      0.89622    
   0.33360      0.89604    
   0.33380      0.89585    
   0.33400      0.89567    
   0.33420      0.89548    
   0.33440      0.89530    
   0.33460      0.89511    
   0.33480      0.89492    
   0.33500      0.89474    
   0.33520      0.89455    
   0.33540      0.89436    
   0.33560      0.89418    
   0.33580      0.89399    
   0.33600      0.89380    
   0.33620      0.89362    
   0.33640      0.89343    
   0.33660      0.89324    
   0.33680      0.89305    
   0.33700      0.89286    
   0.33720      0.89267    
   0.33740      0.89249    
   0.33760      0.89230    
   0.33780      0.89211    
   0.33800      0.89192    
   0.33820      0.89173    
   0.33840      0.89154    
   0.33860      0.89135    
   0.33880      0.89116    
   0.33900      0.89097    
   0.33920      0.89078    
   0.33940      0.89059    
   0.33960      0.89040    
   0.33980      0.89020    
   0.34000      0.89001    
   0.34020      0.88982    
   0.34040      0.88963    
   0.34060      0.88944    
   0.34080      0.88924    
   0.34100      0.88905    
   0.34120      0.88886    
   0.34140      0.88867    
   0.34160      0.88847    
   0.34180      0.88828    
   0.34200      0.88809    
   0.34220      0.88789    
   0.34240      0.88770    
   0.34260      0.88751    
   0.34280      0.88731    
   0.34300      0.88712    
   0.34320      0.88692    
   0.34340      0.88673    
   0.34360      0.88653    
   0.34380      0.88634    
   0.34400      0.88614    
   0.34420      0.88595    
   0.34440      0.88575    
   0.34460      0.88555    
   0.34480      0.88536    
   0.34500      0.88516    
   0.34520      0.88496    
   0.34540      0.88477    
   0.34560      0.88457    
   0.34580      0.88437    
   0.34600      0.88417    
   0.34620      0.88398    
   0.34640      0.88378    
   0.34660      0.88358    
   0.34680      0.88338    
   0.34700      0.88318    
   0.34720      0.88299    
   0.34740      0.88279    
   0.34760      0.88259    
   0.34780      0.88239    
   0.34800      0.88219    
   0.34820      0.88199    
   0.34840      0.88179    
   0.34860      0.88159    
   0.34880      0.88139    
   0.34900      0.88119    
   0.34920      0.88099    
   0.34940      0.88079    
   0.34960      0.88058    
   0.34980      0.88038    
   0.35000      0.88018    
   0.35020      0.87998    
   0.35040      0.87978    
   0.35060      0.87957    
   0.35080      0.87937    
   0.35100      0.87917    
   0.35120      0.87897    
   0.35140      0.87876    
   0.35160      0.87856    
   0.35180      0.87836    
   0.35200      0.87815    
   0.35220      0.87795    
   0.35240      0.87775    
   0.35260      0.87754    
   0.35280      0.87734    
   0.35300      0.87713    
   0.35320      0.87693    
   0.35340      0.87672    
   0.35360      0.87652    
   0.35380      0.87631    
   0.35400      0.87611    
   0.35420      0.87590    
   0.35440      0.87569    
   0.35460      0.87549    
   0.35480      0.87528    
   0.35500      0.87507    
   0.35520      0.87487    
   0.35540      0.87466    
   0.35560      0.87445    
   0.35580      0.87424    
   0.35600      0.87404    
   0.35620      0.87383    
   0.35640      0.87362    
   0.35660      0.87341    
   0.35680      0.87320    
   0.35700      0.87299    
   0.35720      0.87279    
   0.35740      0.87258    
   0.35760      0.87237    
   0.35780      0.87216    
   0.35800      0.87195    
   0.35820      0.87174    
   0.35840      0.87153    
   0.35860      0.87132    
   0.35880      0.87111    
   0.35900      0.87090    
   0.35920      0.87068    
   0.35940      0.87047    
   0.35960      0.87026    
   0.35980      0.87005    
   0.36000      0.86984    
   0.36020      0.86963    
   0.36040      0.86941    
   0.36060      0.86920    
   0.36080      0.86899    
   0.36100      0.86878    
   0.36120      0.86856    
   0.36140      0.86835    
   0.36160      0.86814    
   0.36180      0.86792    
   0.36200      0.86771    
   0.36220      0.86749    
   0.36240      0.86728    
   0.36260      0.86707    
   0.36280      0.86685    
   0.36300      0.86664    
   0.36320      0.86642    
   0.36340      0.86621    
   0.36360      0.86599    
   0.36380      0.86577    
   0.36400      0.86556    
   0.36420      0.86534    
   0.36440      0.86513    
   0.36460      0.86491    
   0.36480      0.86469    
   0.36500      0.86448    
   0.36520      0.86426    
   0.36540      0.86404    
   0.36560      0.86382    
   0.36580      0.86361    
   0.36600      0.86339    
   0.36620      0.86317    
   0.36640      0.86295    
   0.36660      0.86273    
   0.36680      0.86251    
   0.36700      0.86230    
   0.36720      0.86208    
   0.36740      0.86186    
   0.36760      0.86164    
   0.36780      0.86142    
   0.36800      0.86120    
   0.36820      0.86098    
   0.36840      0.86076    
   0.36860      0.86054    
   0.36880      0.86032    
   0.36900      0.86009    
   0.36920      0.85987    
   0.36940      0.85965    
   0.36960      0.85943    
   0.36980      0.85921    
   0.37000      0.85899    
   0.37020      0.85876    
   0.37040      0.85854    
   0.37060      0.85832    
   0.37080      0.85810    
   0.37100      0.85787    
   0.37120      0.85765    
   0.37140      0.85743    
   0.37160      0.85720    
   0.37180      0.85698    
   0.37200      0.85676    
   0.37220      0.85653    
   0.37240      0.85631    
   0.37260      0.85608    
   0.37280      0.85586    
   0.37300      0.85563    
   0.37320      0.85541    
   0.37340      0.85518    
   0.37360      0.85496    
   0.37380      0.85473    
   0.37400      0.85450    
   0.37420      0.85428    
   0.37440      0.85405    
   0.37460      0.85382    
   0.37480      0.85360    
   0.37500      0.85337    
   0.37520      0.85314    
   0.37540      0.85292    
   0.37560      0.85269    
   0.37580      0.85246    
   0.37600      0.85223    
   0.37620      0.85200    
   0.37640      0.85178    
   0.37660      0.85155    
   0.37680      0.85132    
   0.37700      0.85109    
   0.37720      0.85086    
   0.37740      0.85063    
   0.37760      0.85040    
   0.37780      0.85017    
   0.37800      0.84994    
   0.37820      0.84971    
   0.37840      0.84948    
   0.37860      0.84925    
   0.37880      0.84902    
   0.37900      0.84879    
   0.37920      0.84856    
   0.37940      0.84832    
   0.37960      0.84809    
   0.37980      0.84786    
   0.38000      0.84763    
   0.38020      0.84740    
   0.38040      0.84716    
   0.38060      0.84693    
   0.38080      0.84670    
   0.38100      0.84646    
   0.38120      0.84623    
   0.38140      0.84600    
   0.38160      0.84576    
   0.38180      0.84553    
   0.38200      0.84530    
   0.38220      0.84506    
   0.38240      0.84483    
   0.38260      0.84459    
   0.38280      0.84436    
   0.38300      0.84412    
   0.38320      0.84389    
   0.38340      0.84365    
   0.38360      0.84342    
   0.38380      0.84318    
   0.38400      0.84294    
   0.38420      0.84271    
   0.38440      0.84247    
   0.38460      0.84223    
   0.38480      0.84200    
   0.38500      0.84176    
   0.38520      0.84152    
   0.38540      0.84129    
   0.38560      0.84105    
   0.38580      0.84081    
   0.38600      0.84057    
   0.38620      0.84033    
   0.38640      0.84009    
   0.38660      0.83986    
   0.38680      0.83962    
   0.38700      0.83938    
   0.38720      0.83914    
   0.38740      0.83890    
   0.38760      0.83866    
   0.38780      0.83842    
   0.38800      0.83818    
   0.38820      0.83794    
   0.38840      0.83770    
   0.38860      0.83746    
   0.38880      0.83722    
   0.38900      0.83697    
   0.38920      0.83673    
   0.38940      0.83649    
   0.38960      0.83625    
   0.38980      0.83601    
   0.39000      0.83577    
   0.39020      0.83552    
   0.39040      0.83528    
   0.39060      0.83504    
   0.39080      0.83480    
   0.39100      0.83455    
   0.39120      0.83431    
   0.39140      0.83407    
   0.39160      0.83382    
   0.39180      0.83358    
   0.39200      0.83333    
   0.39220      0.83309    
   0.39240      0.83284    
   0.39260      0.83260    
   0.39280      0.83235    
   0.39300      0.83211    
   0.39320      0.83186    
   0.39340      0.83162    
   0.39360      0.83137    
   0.39380      0.83113    
   0.39400      0.83088    
   0.39420      0.83063    
   0.39440      0.83039    
   0.39460      0.83014    
   0.39480      0.82989    
   0.39500      0.82965    
   0.39520      0.82940    
   0.39540      0.82915    
   0.39560      0.82890    
   0.39580      0.82866    
   0.39600      0.82841    
   0.39620      0.82816    
   0.39640      0.82791    
   0.39660      0.82766    
   0.39680      0.82741    
   0.39700      0.82716    
   0.39720      0.82692    
   0.39740      0.82667    
   0.39760      0.82642    
   0.39780      0.82617    
   0.39800      0.82592    
   0.39820      0.82567    
   0.39840      0.82542    
   0.39860      0.82516    
   0.39880      0.82491    
   0.39900      0.82466    
   0.39920      0.82441    
   0.39940      0.82416    
   0.39960      0.82391    
   0.39980      0.82366    
   0.40000      0.82340    
