 Be Density=1.848 Thickness=52.324 microns
 Wavelength (nm), Transmission
   0.30000      0.92769    
   0.30020      0.92754    
   0.30040      0.92740    
   0.30060      0.92725    
   0.30080      0.92710    
   0.30100      0.92695    
   0.30120      0.92681    
   0.30140      0.92666    
   0.30160      0.92651    
   0.30180      0.92636    
   0.30200      0.92621    
   0.30220      0.92606    
   0.30240      0.92592    
   0.30260      0.92577    
   0.30280      0.92562    
   0.30300      0.92547    
   0.30320      0.92533    
   0.30340      0.92518    
   0.30360      0.92503    
   0.30380      0.92488    
   0.30400      0.92473    
   0.30420      0.92458    
   0.30440      0.92443    
   0.30460      0.92428    
   0.30480      0.92414    
   0.30500      0.92399    
   0.30520      0.92384    
   0.30540      0.92369    
   0.30560      0.92354    
   0.30580      0.92338    
   0.30600      0.92323    
   0.30620      0.92308    
   0.30640      0.92293    
   0.30660      0.92278    
   0.30680      0.92263    
   0.30700      0.92248    
   0.30720      0.92233    
   0.30740      0.92217    
   0.30760      0.92202    
   0.30780      0.92187    
   0.30800      0.92172    
   0.30820      0.92156    
   0.30840      0.92141    
   0.30860      0.92126    
   0.30880      0.92110    
   0.30900      0.92095    
   0.30920      0.92080    
   0.30940      0.92064    
   0.30960      0.92049    
   0.30980      0.92033    
   0.31000      0.92018    
   0.31020      0.92003    
   0.31040      0.91987    
   0.31060      0.91972    
   0.31080      0.91956    
   0.31100      0.91941    
   0.31120      0.91925    
   0.31140      0.91909    
   0.31160      0.91894    
   0.31180      0.91878    
   0.31200      0.91863    
   0.31220      0.91847    
   0.31240      0.91831    
   0.31260      0.91816    
   0.31280      0.91800    
   0.31300      0.91784    
   0.31320      0.91768    
   0.31340      0.91753    
   0.31360      0.91737    
   0.31380      0.91721    
   0.31400      0.91705    
   0.31420      0.91689    
   0.31440      0.91673    
   0.31460      0.91658    
   0.31480      0.91642    
   0.31500      0.91626    
   0.31520      0.91610    
   0.31540      0.91594    
   0.31560      0.91578    
   0.31580      0.91562    
   0.31600      0.91546    
   0.31620      0.91530    
   0.31640      0.91514    
   0.31660      0.91498    
   0.31680      0.91482    
   0.31700      0.91465    
   0.31720      0.91449    
   0.31740      0.91433    
   0.31760      0.91417    
   0.31780      0.91401    
   0.31800      0.91385    
   0.31820      0.91368    
   0.31840      0.91352    
   0.31860      0.91336    
   0.31880      0.91320    
   0.31900      0.91303    
   0.31920      0.91287    
   0.31940      0.91271    
   0.31960      0.91254    
   0.31980      0.91238    
   0.32000      0.91221    
   0.32020      0.91205    
   0.32040      0.91189    
   0.32060      0.91172    
   0.32080      0.91156    
   0.32100      0.91139    
   0.32120      0.91123    
   0.32140      0.91106    
   0.32160      0.91090    
   0.32180      0.91073    
   0.32200      0.91056    
   0.32220      0.91040    
   0.32240      0.91023    
   0.32260      0.91006    
   0.32280      0.90990    
   0.32300      0.90973    
   0.32320      0.90956    
   0.32340      0.90940    
   0.32360      0.90923    
   0.32380      0.90906    
   0.32400      0.90889    
   0.32420      0.90872    
   0.32440      0.90856    
   0.32460      0.90839    
   0.32480      0.90822    
   0.32500      0.90805    
   0.32520      0.90788    
   0.32540      0.90771    
   0.32560      0.90754    
   0.32580      0.90737    
   0.32600      0.90720    
   0.32620      0.90703    
   0.32640      0.90686    
   0.32660      0.90669    
   0.32680      0.90652    
   0.32700      0.90635    
   0.32720      0.90618    
   0.32740      0.90601    
   0.32760      0.90584    
   0.32780      0.90567    
   0.32800      0.90549    
   0.32820      0.90532    
   0.32840      0.90515    
   0.32860      0.90498    
   0.32880      0.90480    
   0.32900      0.90463    
   0.32920      0.90446    
   0.32940      0.90429    
   0.32960      0.90411    
   0.32980      0.90394    
   0.33000      0.90377    
   0.33020      0.90359    
   0.33040      0.90342    
   0.33060      0.90324    
   0.33080      0.90307    
   0.33100      0.90289    
   0.33120      0.90272    
   0.33140      0.90254    
   0.33160      0.90237    
   0.33180      0.90219    
   0.33200      0.90202    
   0.33220      0.90184    
   0.33240      0.90166    
   0.33260      0.90149    
   0.33280      0.90131    
   0.33300      0.90113    
   0.33320      0.90096    
   0.33340      0.90078    
   0.33360      0.90060    
   0.33380      0.90043    
   0.33400      0.90025    
   0.33420      0.90007    
   0.33440      0.89989    
   0.33460      0.89971    
   0.33480      0.89954    
   0.33500      0.89936    
   0.33520      0.89918    
   0.33540      0.89900    
   0.33560      0.89882    
   0.33580      0.89864    
   0.33600      0.89846    
   0.33620      0.89828    
   0.33640      0.89810    
   0.33660      0.89792    
   0.33680      0.89774    
   0.33700      0.89756    
   0.33720      0.89738    
   0.33740      0.89720    
   0.33760      0.89702    
   0.33780      0.89684    
   0.33800      0.89665    
   0.33820      0.89647    
   0.33840      0.89629    
   0.33860      0.89611    
   0.33880      0.89593    
   0.33900      0.89574    
   0.33920      0.89556    
   0.33940      0.89538    
   0.33960      0.89519    
   0.33980      0.89501    
   0.34000      0.89483    
   0.34020      0.89464    
   0.34040      0.89446    
   0.34060      0.89427    
   0.34080      0.89409    
   0.34100      0.89391    
   0.34120      0.89372    
   0.34140      0.89354    
   0.34160      0.89335    
   0.34180      0.89317    
   0.34200      0.89298    
   0.34220      0.89279    
   0.34240      0.89261    
   0.34260      0.89242    
   0.34280      0.89224    
   0.34300      0.89205    
   0.34320      0.89186    
   0.34340      0.89168    
   0.34360      0.89149    
   0.34380      0.89130    
   0.34400      0.89111    
   0.34420      0.89093    
   0.34440      0.89074    
   0.34460      0.89055    
   0.34480      0.89036    
   0.34500      0.89017    
   0.34520      0.88998    
   0.34540      0.88980    
   0.34560      0.88961    
   0.34580      0.88942    
   0.34600      0.88923    
   0.34620      0.88904    
   0.34640      0.88885    
   0.34660      0.88866    
   0.34680      0.88847    
   0.34700      0.88828    
   0.34720      0.88809    
   0.34740      0.88790    
   0.34760      0.88771    
   0.34780      0.88751    
   0.34800      0.88732    
   0.34820      0.88713    
   0.34840      0.88694    
   0.34860      0.88675    
   0.34880      0.88655    
   0.34900      0.88636    
   0.34920      0.88617    
   0.34940      0.88598    
   0.34960      0.88578    
   0.34980      0.88559    
   0.35000      0.88540    
   0.35020      0.88520    
   0.35040      0.88501    
   0.35060      0.88482    
   0.35080      0.88462    
   0.35100      0.88443    
   0.35120      0.88423    
   0.35140      0.88404    
   0.35160      0.88384    
   0.35180      0.88365    
   0.35200      0.88345    
   0.35220      0.88326    
   0.35240      0.88306    
   0.35260      0.88286    
   0.35280      0.88267    
   0.35300      0.88247    
   0.35320      0.88227    
   0.35340      0.88208    
   0.35360      0.88188    
   0.35380      0.88168    
   0.35400      0.88149    
   0.35420      0.88129    
   0.35440      0.88109    
   0.35460      0.88089    
   0.35480      0.88069    
   0.35500      0.88050    
   0.35520      0.88030    
   0.35540      0.88010    
   0.35560      0.87990    
   0.35580      0.87970    
   0.35600      0.87950    
   0.35620      0.87930    
   0.35640      0.87910    
   0.35660      0.87890    
   0.35680      0.87870    
   0.35700      0.87850    
   0.35720      0.87830    
   0.35740      0.87810    
   0.35760      0.87790    
   0.35780      0.87770    
   0.35800      0.87750    
   0.35820      0.87730    
   0.35840      0.87709    
   0.35860      0.87689    
   0.35880      0.87669    
   0.35900      0.87649    
   0.35920      0.87628    
   0.35940      0.87608    
   0.35960      0.87588    
   0.35980      0.87568    
   0.36000      0.87547    
   0.36020      0.87527    
   0.36040      0.87506    
   0.36060      0.87486    
   0.36080      0.87466    
   0.36100      0.87445    
   0.36120      0.87425    
   0.36140      0.87404    
   0.36160      0.87384    
   0.36180      0.87363    
   0.36200      0.87343    
   0.36220      0.87322    
   0.36240      0.87302    
   0.36260      0.87281    
   0.36280      0.87260    
   0.36300      0.87240    
   0.36320      0.87219    
   0.36340      0.87199    
   0.36360      0.87178    
   0.36380      0.87157    
   0.36400      0.87136    
   0.36420      0.87116    
   0.36440      0.87095    
   0.36460      0.87074    
   0.36480      0.87053    
   0.36500      0.87032    
   0.36520      0.87012    
   0.36540      0.86991    
   0.36560      0.86970    
   0.36580      0.86949    
   0.36600      0.86928    
   0.36620      0.86907    
   0.36640      0.86886    
   0.36660      0.86865    
   0.36680      0.86844    
   0.36700      0.86823    
   0.36720      0.86802    
   0.36740      0.86781    
   0.36760      0.86760    
   0.36780      0.86739    
   0.36800      0.86718    
   0.36820      0.86696    
   0.36840      0.86675    
   0.36860      0.86654    
   0.36880      0.86633    
   0.36900      0.86612    
   0.36920      0.86590    
   0.36940      0.86569    
   0.36960      0.86548    
   0.36980      0.86527    
   0.37000      0.86505    
   0.37020      0.86484    
   0.37040      0.86463    
   0.37060      0.86441    
   0.37080      0.86420    
   0.37100      0.86398    
   0.37120      0.86377    
   0.37140      0.86355    
   0.37160      0.86334    
   0.37180      0.86312    
   0.37200      0.86291    
   0.37220      0.86269    
   0.37240      0.86248    
   0.37260      0.86226    
   0.37280      0.86205    
   0.37300      0.86183    
   0.37320      0.86161    
   0.37340      0.86140    
   0.37360      0.86118    
   0.37380      0.86096    
   0.37400      0.86075    
   0.37420      0.86053    
   0.37440      0.86031    
   0.37460      0.86009    
   0.37480      0.85988    
   0.37500      0.85966    
   0.37520      0.85944    
   0.37540      0.85922    
   0.37560      0.85900    
   0.37580      0.85878    
   0.37600      0.85856    
   0.37620      0.85834    
   0.37640      0.85813    
   0.37660      0.85791    
   0.37680      0.85769    
   0.37700      0.85747    
   0.37720      0.85725    
   0.37740      0.85702    
   0.37760      0.85680    
   0.37780      0.85658    
   0.37800      0.85636    
   0.37820      0.85614    
   0.37840      0.85592    
   0.37860      0.85570    
   0.37880      0.85548    
   0.37900      0.85525    
   0.37920      0.85503    
   0.37940      0.85481    
   0.37960      0.85459    
   0.37980      0.85436    
   0.38000      0.85414    
   0.38020      0.85392    
   0.38040      0.85369    
   0.38060      0.85347    
   0.38080      0.85325    
   0.38100      0.85302    
   0.38120      0.85280    
   0.38140      0.85257    
   0.38160      0.85235    
   0.38180      0.85212    
   0.38200      0.85190    
   0.38220      0.85167    
   0.38240      0.85145    
   0.38260      0.85122    
   0.38280      0.85100    
   0.38300      0.85077    
   0.38320      0.85054    
   0.38340      0.85032    
   0.38360      0.85009    
   0.38380      0.84986    
   0.38400      0.84964    
   0.38420      0.84941    
   0.38440      0.84918    
   0.38460      0.84896    
   0.38480      0.84873    
   0.38500      0.84850    
   0.38520      0.84827    
   0.38540      0.84804    
   0.38560      0.84781    
   0.38580      0.84759    
   0.38600      0.84736    
   0.38620      0.84713    
   0.38640      0.84690    
   0.38660      0.84667    
   0.38680      0.84644    
   0.38700      0.84621    
   0.38720      0.84598    
   0.38740      0.84575    
   0.38760      0.84552    
   0.38780      0.84529    
   0.38800      0.84506    
   0.38820      0.84483    
   0.38840      0.84459    
   0.38860      0.84436    
   0.38880      0.84413    
   0.38900      0.84390    
   0.38920      0.84367    
   0.38940      0.84344    
   0.38960      0.84320    
   0.38980      0.84297    
   0.39000      0.84274    
   0.39020      0.84250    
   0.39040      0.84227    
   0.39060      0.84204    
   0.39080      0.84180    
   0.39100      0.84157    
   0.39120      0.84134    
   0.39140      0.84110    
   0.39160      0.84087    
   0.39180      0.84063    
   0.39200      0.84040    
   0.39220      0.84016    
   0.39240      0.83993    
   0.39260      0.83969    
   0.39280      0.83946    
   0.39300      0.83922    
   0.39320      0.83898    
   0.39340      0.83875    
   0.39360      0.83851    
   0.39380      0.83828    
   0.39400      0.83804    
   0.39420      0.83780    
   0.39440      0.83756    
   0.39460      0.83733    
   0.39480      0.83709    
   0.39500      0.83685    
   0.39520      0.83661    
   0.39540      0.83638    
   0.39560      0.83614    
   0.39580      0.83590    
   0.39600      0.83566    
   0.39620      0.83542    
   0.39640      0.83518    
   0.39660      0.83494    
   0.39680      0.83470    
   0.39700      0.83446    
   0.39720      0.83422    
   0.39740      0.83398    
   0.39760      0.83374    
   0.39780      0.83350    
   0.39800      0.83326    
   0.39820      0.83302    
   0.39840      0.83278    
   0.39860      0.83254    
   0.39880      0.83230    
   0.39900      0.83206    
   0.39920      0.83181    
   0.39940      0.83157    
   0.39960      0.83133    
   0.39980      0.83109    
   0.40000      0.83085    
