 Be Density=1.848 Thickness=55.88 microns
 Wavelength (nm), Transmission
   0.30000      0.92297    
   0.30020      0.92281    
   0.30040      0.92266    
   0.30060      0.92250    
   0.30080      0.92235    
   0.30100      0.92219    
   0.30120      0.92203    
   0.30140      0.92187    
   0.30160      0.92172    
   0.30180      0.92156    
   0.30200      0.92140    
   0.30220      0.92124    
   0.30240      0.92109    
   0.30260      0.92093    
   0.30280      0.92077    
   0.30300      0.92062    
   0.30320      0.92046    
   0.30340      0.92030    
   0.30360      0.92014    
   0.30380      0.91999    
   0.30400      0.91983    
   0.30420      0.91967    
   0.30440      0.91951    
   0.30460      0.91935    
   0.30480      0.91919    
   0.30500      0.91903    
   0.30520      0.91887    
   0.30540      0.91872    
   0.30560      0.91856    
   0.30580      0.91840    
   0.30600      0.91824    
   0.30620      0.91808    
   0.30640      0.91792    
   0.30660      0.91775    
   0.30680      0.91759    
   0.30700      0.91743    
   0.30720      0.91727    
   0.30740      0.91711    
   0.30760      0.91695    
   0.30780      0.91679    
   0.30800      0.91662    
   0.30820      0.91646    
   0.30840      0.91630    
   0.30860      0.91614    
   0.30880      0.91597    
   0.30900      0.91581    
   0.30920      0.91565    
   0.30940      0.91548    
   0.30960      0.91532    
   0.30980      0.91516    
   0.31000      0.91499    
   0.31020      0.91483    
   0.31040      0.91466    
   0.31060      0.91450    
   0.31080      0.91433    
   0.31100      0.91417    
   0.31120      0.91400    
   0.31140      0.91384    
   0.31160      0.91367    
   0.31180      0.91351    
   0.31200      0.91334    
   0.31220      0.91318    
   0.31240      0.91301    
   0.31260      0.91284    
   0.31280      0.91268    
   0.31300      0.91251    
   0.31320      0.91234    
   0.31340      0.91217    
   0.31360      0.91201    
   0.31380      0.91184    
   0.31400      0.91167    
   0.31420      0.91150    
   0.31440      0.91133    
   0.31460      0.91117    
   0.31480      0.91100    
   0.31500      0.91083    
   0.31520      0.91066    
   0.31540      0.91049    
   0.31560      0.91032    
   0.31580      0.91015    
   0.31600      0.90998    
   0.31620      0.90981    
   0.31640      0.90964    
   0.31660      0.90947    
   0.31680      0.90930    
   0.31700      0.90913    
   0.31720      0.90895    
   0.31740      0.90878    
   0.31760      0.90861    
   0.31780      0.90844    
   0.31800      0.90827    
   0.31820      0.90810    
   0.31840      0.90792    
   0.31860      0.90775    
   0.31880      0.90758    
   0.31900      0.90740    
   0.31920      0.90723    
   0.31940      0.90706    
   0.31960      0.90688    
   0.31980      0.90671    
   0.32000      0.90654    
   0.32020      0.90636    
   0.32040      0.90619    
   0.32060      0.90601    
   0.32080      0.90584    
   0.32100      0.90566    
   0.32120      0.90549    
   0.32140      0.90531    
   0.32160      0.90514    
   0.32180      0.90496    
   0.32200      0.90478    
   0.32220      0.90461    
   0.32240      0.90443    
   0.32260      0.90425    
   0.32280      0.90408    
   0.32300      0.90390    
   0.32320      0.90372    
   0.32340      0.90355    
   0.32360      0.90337    
   0.32380      0.90319    
   0.32400      0.90301    
   0.32420      0.90283    
   0.32440      0.90265    
   0.32460      0.90248    
   0.32480      0.90230    
   0.32500      0.90212    
   0.32520      0.90194    
   0.32540      0.90176    
   0.32560      0.90158    
   0.32580      0.90140    
   0.32600      0.90122    
   0.32620      0.90104    
   0.32640      0.90086    
   0.32660      0.90068    
   0.32680      0.90050    
   0.32700      0.90031    
   0.32720      0.90013    
   0.32740      0.89995    
   0.32760      0.89977    
   0.32780      0.89959    
   0.32800      0.89941    
   0.32820      0.89922    
   0.32840      0.89904    
   0.32860      0.89886    
   0.32880      0.89867    
   0.32900      0.89849    
   0.32920      0.89831    
   0.32940      0.89812    
   0.32960      0.89794    
   0.32980      0.89776    
   0.33000      0.89757    
   0.33020      0.89739    
   0.33040      0.89720    
   0.33060      0.89702    
   0.33080      0.89683    
   0.33100      0.89665    
   0.33120      0.89646    
   0.33140      0.89628    
   0.33160      0.89609    
   0.33180      0.89590    
   0.33200      0.89572    
   0.33220      0.89553    
   0.33240      0.89534    
   0.33260      0.89516    
   0.33280      0.89497    
   0.33300      0.89478    
   0.33320      0.89459    
   0.33340      0.89441    
   0.33360      0.89422    
   0.33380      0.89403    
   0.33400      0.89384    
   0.33420      0.89365    
   0.33440      0.89346    
   0.33460      0.89328    
   0.33480      0.89309    
   0.33500      0.89290    
   0.33520      0.89271    
   0.33540      0.89252    
   0.33560      0.89233    
   0.33580      0.89214    
   0.33600      0.89195    
   0.33620      0.89176    
   0.33640      0.89157    
   0.33660      0.89137    
   0.33680      0.89118    
   0.33700      0.89099    
   0.33720      0.89080    
   0.33740      0.89061    
   0.33760      0.89042    
   0.33780      0.89022    
   0.33800      0.89003    
   0.33820      0.88984    
   0.33840      0.88965    
   0.33860      0.88945    
   0.33880      0.88926    
   0.33900      0.88907    
   0.33920      0.88887    
   0.33940      0.88868    
   0.33960      0.88848    
   0.33980      0.88829    
   0.34000      0.88809    
   0.34020      0.88790    
   0.34040      0.88770    
   0.34060      0.88751    
   0.34080      0.88731    
   0.34100      0.88712    
   0.34120      0.88692    
   0.34140      0.88673    
   0.34160      0.88653    
   0.34180      0.88633    
   0.34200      0.88614    
   0.34220      0.88594    
   0.34240      0.88574    
   0.34260      0.88555    
   0.34280      0.88535    
   0.34300      0.88515    
   0.34320      0.88495    
   0.34340      0.88476    
   0.34360      0.88456    
   0.34380      0.88436    
   0.34400      0.88416    
   0.34420      0.88396    
   0.34440      0.88376    
   0.34460      0.88356    
   0.34480      0.88336    
   0.34500      0.88316    
   0.34520      0.88296    
   0.34540      0.88276    
   0.34560      0.88256    
   0.34580      0.88236    
   0.34600      0.88216    
   0.34620      0.88196    
   0.34640      0.88176    
   0.34660      0.88156    
   0.34680      0.88136    
   0.34700      0.88115    
   0.34720      0.88095    
   0.34740      0.88075    
   0.34760      0.88055    
   0.34780      0.88035    
   0.34800      0.88014    
   0.34820      0.87994    
   0.34840      0.87974    
   0.34860      0.87953    
   0.34880      0.87933    
   0.34900      0.87913    
   0.34920      0.87892    
   0.34940      0.87872    
   0.34960      0.87851    
   0.34980      0.87831    
   0.35000      0.87810    
   0.35020      0.87790    
   0.35040      0.87769    
   0.35060      0.87749    
   0.35080      0.87728    
   0.35100      0.87708    
   0.35120      0.87687    
   0.35140      0.87666    
   0.35160      0.87646    
   0.35180      0.87625    
   0.35200      0.87604    
   0.35220      0.87584    
   0.35240      0.87563    
   0.35260      0.87542    
   0.35280      0.87521    
   0.35300      0.87500    
   0.35320      0.87480    
   0.35340      0.87459    
   0.35360      0.87438    
   0.35380      0.87417    
   0.35400      0.87396    
   0.35420      0.87375    
   0.35440      0.87354    
   0.35460      0.87333    
   0.35480      0.87312    
   0.35500      0.87291    
   0.35520      0.87270    
   0.35540      0.87249    
   0.35560      0.87228    
   0.35580      0.87207    
   0.35600      0.87186    
   0.35620      0.87165    
   0.35640      0.87144    
   0.35660      0.87123    
   0.35680      0.87101    
   0.35700      0.87080    
   0.35720      0.87059    
   0.35740      0.87038    
   0.35760      0.87016    
   0.35780      0.86995    
   0.35800      0.86974    
   0.35820      0.86952    
   0.35840      0.86931    
   0.35860      0.86910    
   0.35880      0.86888    
   0.35900      0.86867    
   0.35920      0.86845    
   0.35940      0.86824    
   0.35960      0.86803    
   0.35980      0.86781    
   0.36000      0.86760    
   0.36020      0.86738    
   0.36040      0.86716    
   0.36060      0.86695    
   0.36080      0.86673    
   0.36100      0.86652    
   0.36120      0.86630    
   0.36140      0.86608    
   0.36160      0.86587    
   0.36180      0.86565    
   0.36200      0.86543    
   0.36220      0.86521    
   0.36240      0.86500    
   0.36260      0.86478    
   0.36280      0.86456    
   0.36300      0.86434    
   0.36320      0.86412    
   0.36340      0.86391    
   0.36360      0.86369    
   0.36380      0.86347    
   0.36400      0.86325    
   0.36420      0.86303    
   0.36440      0.86281    
   0.36460      0.86259    
   0.36480      0.86237    
   0.36500      0.86215    
   0.36520      0.86193    
   0.36540      0.86171    
   0.36560      0.86149    
   0.36580      0.86126    
   0.36600      0.86104    
   0.36620      0.86082    
   0.36640      0.86060    
   0.36660      0.86038    
   0.36680      0.86016    
   0.36700      0.85993    
   0.36720      0.85971    
   0.36740      0.85949    
   0.36760      0.85926    
   0.36780      0.85904    
   0.36800      0.85882    
   0.36820      0.85859    
   0.36840      0.85837    
   0.36860      0.85815    
   0.36880      0.85792    
   0.36900      0.85770    
   0.36920      0.85747    
   0.36940      0.85725    
   0.36960      0.85702    
   0.36980      0.85680    
   0.37000      0.85657    
   0.37020      0.85635    
   0.37040      0.85612    
   0.37060      0.85589    
   0.37080      0.85567    
   0.37100      0.85544    
   0.37120      0.85521    
   0.37140      0.85499    
   0.37160      0.85476    
   0.37180      0.85453    
   0.37200      0.85431    
   0.37220      0.85408    
   0.37240      0.85385    
   0.37260      0.85362    
   0.37280      0.85339    
   0.37300      0.85316    
   0.37320      0.85294    
   0.37340      0.85271    
   0.37360      0.85248    
   0.37380      0.85225    
   0.37400      0.85202    
   0.37420      0.85179    
   0.37440      0.85156    
   0.37460      0.85133    
   0.37480      0.85110    
   0.37500      0.85087    
   0.37520      0.85064    
   0.37540      0.85041    
   0.37560      0.85018    
   0.37580      0.84994    
   0.37600      0.84971    
   0.37620      0.84948    
   0.37640      0.84925    
   0.37660      0.84902    
   0.37680      0.84878    
   0.37700      0.84855    
   0.37720      0.84832    
   0.37740      0.84809    
   0.37760      0.84785    
   0.37780      0.84762    
   0.37800      0.84739    
   0.37820      0.84715    
   0.37840      0.84692    
   0.37860      0.84668    
   0.37880      0.84645    
   0.37900      0.84621    
   0.37920      0.84598    
   0.37940      0.84574    
   0.37960      0.84551    
   0.37980      0.84527    
   0.38000      0.84504    
   0.38020      0.84480    
   0.38040      0.84457    
   0.38060      0.84433    
   0.38080      0.84409    
   0.38100      0.84386    
   0.38120      0.84362    
   0.38140      0.84338    
   0.38160      0.84314    
   0.38180      0.84291    
   0.38200      0.84267    
   0.38220      0.84243    
   0.38240      0.84219    
   0.38260      0.84195    
   0.38280      0.84172    
   0.38300      0.84148    
   0.38320      0.84124    
   0.38340      0.84100    
   0.38360      0.84076    
   0.38380      0.84052    
   0.38400      0.84028    
   0.38420      0.84004    
   0.38440      0.83980    
   0.38460      0.83956    
   0.38480      0.83932    
   0.38500      0.83908    
   0.38520      0.83884    
   0.38540      0.83860    
   0.38560      0.83836    
   0.38580      0.83811    
   0.38600      0.83787    
   0.38620      0.83763    
   0.38640      0.83739    
   0.38660      0.83715    
   0.38680      0.83690    
   0.38700      0.83666    
   0.38720      0.83642    
   0.38740      0.83617    
   0.38760      0.83593    
   0.38780      0.83569    
   0.38800      0.83544    
   0.38820      0.83520    
   0.38840      0.83496    
   0.38860      0.83471    
   0.38880      0.83447    
   0.38900      0.83422    
   0.38920      0.83398    
   0.38940      0.83373    
   0.38960      0.83349    
   0.38980      0.83324    
   0.39000      0.83299    
   0.39020      0.83275    
   0.39040      0.83250    
   0.39060      0.83226    
   0.39080      0.83201    
   0.39100      0.83176    
   0.39120      0.83152    
   0.39140      0.83127    
   0.39160      0.83102    
   0.39180      0.83077    
   0.39200      0.83052    
   0.39220      0.83028    
   0.39240      0.83003    
   0.39260      0.82978    
   0.39280      0.82953    
   0.39300      0.82928    
   0.39320      0.82903    
   0.39340      0.82878    
   0.39360      0.82853    
   0.39380      0.82829    
   0.39400      0.82803    
   0.39420      0.82778    
   0.39440      0.82753    
   0.39460      0.82728    
   0.39480      0.82703    
   0.39500      0.82678    
   0.39520      0.82653    
   0.39540      0.82628    
   0.39560      0.82603    
   0.39580      0.82578    
   0.39600      0.82553    
   0.39620      0.82527    
   0.39640      0.82502    
   0.39660      0.82477    
   0.39680      0.82452    
   0.39700      0.82426    
   0.39720      0.82401    
   0.39740      0.82376    
   0.39760      0.82350    
   0.39780      0.82325    
   0.39800      0.82300    
   0.39820      0.82274    
   0.39840      0.82249    
   0.39860      0.82223    
   0.39880      0.82198    
   0.39900      0.82172    
   0.39920      0.82147    
   0.39940      0.82121    
   0.39960      0.82096    
   0.39980      0.82070    
   0.40000      0.82045    
